x (mm)	z (mm)	P_atm (Pa)	Temp (°C)	Slant angle (°)	Target U_inf (m/s)	P_tot_y_190	P_tot_y_170	P_tot_y_150	P_tot_y_130	P_tot_y_110	P_tot_y_90	P_tot_y_70	P_tot_y_63	P_tot_y_55	P_tot_y_50	P_tot_y_43	P_tot_y_35	P_tot_y_30	P_tot_y_23	P_tot_y_15	P_tot_y_10	P_tot_y_-10	P_tot_y_-30	P_tot_y_-50	P_tot_y_-70	P_tot_y_-90	P_tot_y_-110	P_stat_y_200	P_stat_y_160	P_stat_y_120	P_stat_y_80	P_stat_y_40	P_stat_y_0	P_stat_y_-40	P_stat_y_-100	P_tot_Prandtl	P_stat_Prandtl
345.00000000	-80.00000000	101400.00000000	23.00000000	35.00000000	15.00000000	-114.33682970	-114.52870069	-114.36854816	-114.28718581	-114.04184090	-114.65229259	-114.65342143	-114.37648344	-114.24916254	-115.15819342	-114.71920092	-116.16924354	-123.92607333	-132.52097620	-146.13527798	-160.15433801	-161.48603662	-124.85740094	-113.96041727	-113.71762685	-113.98122826	-113.95000030	-259.65842255	-258.73908810	-257.76524115	-256.09573286	-256.37828758	-255.56282747	-253.62996875	-253.00860446	-114.13100276	-249.22730899
345.00000000	-60.00000000	101400.00000000	23.00000000	35.00000000	15.00000000	-113.95603324	-113.87390421	-113.94139749	-113.95711513	-113.65328407	-114.34920360	-116.25735157	-115.10840104	-114.72546696	-118.84117833	-116.66864841	-119.41694151	-132.42315046	-136.58327225	-150.25581567	-165.48099593	-152.58286292	-118.18740906	-113.32820641	-113.21767890	-113.39338721	-113.23557336	-258.55715108	-257.07623216	-256.89409265	-256.14732881	-257.72591154	-255.38075948	-252.93168840	-251.52854628	-113.75350694	-248.05272052
345.00000000	-50.00000000	101400.00000000	23.00000000	35.00000000	15.00000000	-113.89464415	-113.78949506	-113.83663850	-113.88518902	-113.68119115	-115.83456806	-120.60053606	-117.50158784	-118.40617065	-127.15254492	-121.57740810	-125.72125638	-145.44618974	-144.95098862	-158.36349255	-172.90843451	-151.49346330	-116.61792713	-113.20690507	-113.05883673	-113.25666340	-113.09132105	-258.44517290	-256.77971608	-256.75879823	-256.84586102	-258.23159581	-255.44527576	-253.05381876	-251.21512309	-113.57000007	-247.89464641
345.00000000	-40.00000000	101400.00000000	23.00000000	35.00000000	15.00000000	-114.19983385	-114.11271421	-113.86206549	-113.96809409	-114.03757220	-117.58733660	-127.27681065	-122.61927750	-125.06594098	-138.36215878	-131.55325145	-137.59018082	-159.87606416	-159.62427658	-170.72594154	-181.56302859	-153.35939324	-117.36943551	-113.40063232	-113.24598740	-113.59705535	-113.45255546	-258.90383907	-257.51555307	-257.36667023	-257.63862242	-259.46775485	-256.38460544	-253.43357669	-251.71975951	-113.77259740	-248.35484369
345.00000000	-30.00000000	101400.00000000	23.00000000	35.00000000	15.00000000	-114.04562601	-113.78703249	-113.61719221	-113.72973075	-114.47121901	-121.18407613	-134.48837299	-131.32748492	-136.47973993	-152.06220267	-146.81984072	-154.45148026	-173.28004243	-172.01500914	-180.22862083	-185.84677495	-157.31211671	-119.85629816	-113.37916167	-112.85673761	-113.37162137	-113.23420520	-258.40146762	-257.11901018	-256.78060867	-257.36132037	-259.26142485	-255.97479495	-253.26074559	-251.11773314	-113.59842567	-247.75712506
345.00000000	-20.00000000	101400.00000000	23.00000000	35.00000000	15.00000000	-113.64583961	-113.56982122	-113.61862935	-113.52477675	-114.75740747	-124.48175857	-142.98936920	-142.07672782	-147.41530593	-162.05265865	-159.63465390	-167.46534145	-180.36454517	-180.70490327	-185.75015022	-186.28887204	-157.99831005	-123.32970233	-113.82523353	-112.82219358	-113.11171524	-113.00948522	-257.88004349	-256.60463751	-256.62376750	-257.40162933	-258.39213191	-255.35348753	-252.80422997	-251.00712149	-113.48961398	-247.47818216
345.00000000	-10.00000000	101400.00000000	23.00000000	35.00000000	15.00000000	-113.83944952	-113.75675765	-113.69225389	-113.56670538	-115.08814021	-126.75937827	-148.39164645	-150.41145964	-156.97640775	-169.19757080	-169.38579965	-175.97892786	-184.21571719	-185.68044611	-188.13886752	-184.55700293	-158.37206938	-124.87148517	-114.10934325	-112.93606379	-113.23076215	-113.20223801	-258.45599434	-257.19336305	-257.09328769	-257.39176581	-258.28296725	-256.00455350	-253.22696419	-251.41694112	-113.60272757	-247.90112399
345.00000000	-0.00000000	101400.00000000	23.00000000	35.00000000	15.00000000	-114.18860198	-113.90448666	-113.79812119	-113.96000632	-115.22391375	-126.94952371	-149.66665450	-155.82177238	-162.22655795	-171.42584848	-174.87377580	-180.61928130	-186.35654962	-187.09485677	-188.24303560	-184.24760876	-158.90774594	-126.07880205	-114.51535351	-113.21405963	-113.33906596	-113.38323490	-259.40496094	-258.01503328	-258.06715770	-258.55222565	-259.43485858	-257.23463268	-254.25547334	-252.07449055	-113.96714470	-248.81505473
345.00000000	10.00000000	101400.00000000	23.00000000	35.00000000	15.00000000	-114.44161605	-114.30258720	-114.13845691	-114.26985464	-115.03590451	-124.94227501	-146.83109524	-157.92500983	-164.65673986	-168.59408823	-177.06552324	-182.09292926	-186.54261650	-188.67888544	-188.66224500	-186.97527155	-157.66531793	-124.02886763	-114.40673764	-113.52895530	-113.94817831	-113.83059660	-260.14054883	-258.93325786	-258.83549567	-259.18008353	-260.34672017	-258.22635991	-254.84726775	-252.98703914	-114.25056526	-249.47964166
345.00000000	20.00000000	101400.00000000	23.00000000	35.00000000	15.00000000	-114.48589669	-113.99600964	-113.96110796	-114.11700038	-114.98341570	-123.28879539	-140.80677238	-154.63861545	-161.44278431	-164.34128807	-175.01712772	-180.97773576	-184.46910002	-189.33007529	-189.27410805	-187.55547282	-158.13588556	-121.42720875	-113.90556929	-113.33346652	-113.77822337	-113.77812179	-260.16053761	-258.79319611	-258.47382539	-258.69728873	-259.86937563	-258.06153487	-254.39213605	-252.64547975	-114.17684180	-249.16193982
345.00000000	30.00000000	101400.00000000	23.00000000	35.00000000	15.00000000	-114.15419482	-114.01806060	-113.94875188	-114.09657938	-114.03182210	-118.75200403	-132.95806056	-147.33518230	-154.66353529	-154.88436697	-168.89813461	-176.05295720	-176.23977417	-186.80663573	-189.05046992	-186.84090347	-156.23616363	-118.82618721	-113.66153163	-113.36904313	-113.70606304	-113.64641698	-259.96812128	-258.77752335	-258.66478922	-258.17693283	-258.45717737	-257.58331152	-254.29647820	-252.76384131	-114.02243595	-249.31471947
345.00000000	40.00000000	101400.00000000	23.00000000	35.00000000	15.00000000	-114.56767457	-114.35952639	-114.23324030	-114.35090092	-114.19676112	-116.55810921	-124.71863829	-138.95839311	-146.07806541	-141.24250485	-160.70161646	-168.79348439	-164.60058809	-181.94484114	-184.82875867	-181.81579002	-153.58381962	-117.22658862	-113.77224727	-113.68134779	-114.08803873	-114.08240900	-261.18784018	-259.77303285	-259.22942761	-258.25089618	-258.80428574	-258.23197203	-254.87959210	-253.53098701	-114.31261783	-249.76324312
345.00000000	50.00000000	101400.00000000	23.00000000	35.00000000	15.00000000	-114.55608369	-114.40776510	-114.27485543	-114.43427657	-114.02916489	-115.19537851	-118.19103397	-128.52217013	-133.33247167	-126.95148076	-144.94989670	-152.08258309	-146.85895288	-170.40442790	-176.26277736	-174.09847823	-152.90212894	-117.50382225	-113.93461990	-113.79475459	-114.10638710	-114.18586855	-261.34957932	-260.20340904	-259.62939372	-258.12135937	-257.82171881	-257.77082733	-255.32767941	-254.02526665	-114.55447121	-250.33231125
345.00000000	60.00000000	101400.00000000	23.00000000	35.00000000	15.00000000	-114.22374852	-114.13826498	-114.20888940	-114.20266529	-113.82633534	-114.44565629	-115.05969412	-119.30967093	-121.81840617	-117.97976218	-129.38754340	-136.09362904	-134.47194988	-155.58802859	-165.02277855	-166.70490860	-154.95030260	-119.20710728	-113.75807263	-113.70098142	-114.03650891	-114.11232351	-260.89134982	-259.62165561	-259.07890788	-257.23823293	-256.52278960	-256.47220198	-254.78307657	-253.88321069	-114.33399640	-249.64576541
345.00000000	80.00000000	101400.00000000	23.00000000	35.00000000	15.00000000	-113.68027158	-113.74305014	-113.59486221	-113.69519626	-113.39306420	-113.81439541	-113.58470349	-114.04605482	-114.08510565	-114.31963741	-116.15408802	-120.48575983	-126.99168399	-140.10096569	-151.80795142	-161.65205624	-159.87105084	-124.68073490	-113.27150425	-113.29821370	-114.83099920	-114.50618211	-259.76461406	-258.50321635	-257.64330782	-255.64056294	-254.62036491	-254.50394937	-253.82979849	-253.75289157	-113.79805111	-248.38972118
